# wavelength [um], throughput
0.321    0.00000 
0.323    0.00002 
0.325    0.00032 
0.327    0.00206 
0.329    0.00674 
0.331    0.01421 
0.333    0.02299 
0.335    0.03274 
0.337    0.04180 
0.339    0.05050 
0.341    0.05958 
0.343    0.06760 
0.345    0.07475 
0.347    0.08025 
0.349    0.08407 
0.351    0.08710 
0.353    0.08854 
0.355    0.08937 
0.357    0.08917 
0.359    0.08863 
0.361    0.08770 
0.363    0.08640 
0.364    0.08539 
0.365    0.08490 
0.367    0.08338 
0.369    0.08183 
0.371    0.08071 
0.373    0.07939 
0.375    0.07925 
0.377    0.08017 
0.379    0.08295 
0.381    0.09014 
0.383    0.10242 
0.385    0.12071 
0.387    0.14525 
0.389    0.17621 
0.391    0.21093 
0.393    0.24760 
0.395    0.28401 
0.397    0.31790 
0.399    0.35028 
0.401    0.37911 
0.403    0.40657 
0.405    0.43172 
0.407    0.45596 
0.409    0.47663 
0.411    0.49884 
0.413    0.51685 
0.415    0.53508 
0.417    0.55286 
0.419    0.57075 
0.421    0.58594 
0.423    0.60022 
0.425    0.61246 
0.427    0.62663 
0.429    0.64060 
0.431    0.65414 
0.433    0.66276 
0.435    0.67603 
0.437    0.68729 
0.439    0.69679 
0.441    0.70653 
0.443    0.71840 
0.445    0.72809 
0.447    0.73537 
0.449    0.74717 
0.451    0.75418 
0.453    0.76463 
0.455    0.77340 
0.457    0.77965 
0.459    0.78716 
0.461    0.79645 
0.463    0.80245 
0.465    0.81254 
0.467    0.81819 
0.469    0.82394 
0.471    0.82925 
0.473    0.84061 
0.475    0.84274 
0.477    0.85333 
0.479    0.85696 
0.481    0.86122 
0.483    0.86653 
0.485    0.87126 
0.487    0.87737 
0.489    0.88165 
0.491    0.88667 
0.493    0.89177 
0.495    0.89744 
0.497    0.90206 
0.499    0.90570 
0.501    0.90884 
0.503    0.91310 
0.505    0.91874 
0.507    0.92255 
0.509    0.92504 
0.511    0.93220 
0.513    0.92966 
0.515    0.93692 
0.517    0.93904 
0.519    0.94380 
0.521    0.94905 
0.523    0.94875 
0.525    0.95255 
0.527    0.95294 
0.529    0.95783 
0.531    0.96155 
0.533    0.96506 
0.535    0.96751 
0.537    0.96849 
0.539    0.97221 
0.541    0.97508 
0.543    0.97453 
0.545    0.97359 
0.547    0.97959 
0.549    0.97824 
0.551    0.98074 
0.553    0.98375 
0.555    0.98665 
0.557    0.98664 
0.559    0.98437 
0.561    0.98624 
0.563    0.98833 
0.565    0.98990 
0.567    0.99106 
0.569    0.98943 
0.571    0.98933 
0.573    0.99066 
0.575    0.99151 
0.577    0.99099 
0.579    0.99326 
0.581    0.99219 
0.583    0.99470 
0.585    0.99012 
0.587    0.99285 
0.589    0.99692 
0.591    0.99293 
0.593    0.99485 
0.595    0.99569 
0.597    0.99554 
0.599    0.99294 
0.601    1.00000 
0.603    0.99307 
0.605    0.99219 
0.607    0.99008 
0.609    0.99270 
0.611    0.99335 
0.613    0.99105 
0.615    0.99105 
0.617    0.99054 
0.619    0.98695 
0.621    0.98843 
0.623    0.98941 
0.625    0.98396 
0.627    0.98384 
0.629    0.98119 
0.631    0.98104 
0.633    0.98303 
0.635    0.98035 
0.637    0.97706 
0.639    0.97628 
0.641    0.97301 
0.643    0.97639 
0.645    0.97148 
0.647    0.97392 
0.649    0.96734 
0.651    0.96956 
0.653    0.96640 
0.655    0.96363 
0.657    0.96081 
0.659    0.95974 
0.661    0.95761 
0.663    0.95226 
0.665    0.95379 
0.667    0.95297 
0.669    0.94996 
0.671    0.94753 
0.673    0.94851 
0.675    0.94479 
0.677    0.94073 
0.679    0.93799 
0.681    0.93725 
0.683    0.93209 
0.685    0.93111 
0.687    0.92485 
0.689    0.92436 
0.691    0.92005 
0.693    0.91720 
0.695    0.91520 
0.697    0.91514 
0.699    0.91215 
0.701    0.91082 
0.703    0.90317 
0.705    0.89864 
0.707    0.89767 
0.709    0.89363 
0.711    0.89302 
0.713    0.88935 
0.715    0.88683 
0.717    0.88031 
0.719    0.87501 
0.721    0.87413 
0.723    0.86862 
0.725    0.86374 
0.727    0.86229 
0.729    0.85529 
0.731    0.85239 
0.733    0.85017 
0.735    0.84407 
0.737    0.84036 
0.739    0.83474 
0.741    0.83271 
0.743    0.82396 
0.745    0.82131 
0.747    0.81715 
0.749    0.81287 
0.751    0.80576 
0.753    0.80383 
0.755    0.79753 
0.757    0.79245 
0.759    0.78821 
0.761    0.78022 
0.763    0.77765 
0.765    0.77186 
0.767    0.76340 
0.769    0.75905 
0.771    0.75415 
0.773    0.74861 
0.775    0.74103 
0.777    0.73193 
0.779    0.73239 
0.781    0.72409 
0.783    0.72061 
0.785    0.71003 
0.787    0.70440 
0.789    0.69850 
0.791    0.69237 
0.793    0.68701 
0.795    0.67976 
0.797    0.67395 
0.799    0.66485 
0.801    0.65804 
0.803    0.65297 
0.805    0.64406 
0.807    0.63765 
0.809    0.63062 
0.811    0.62574 
0.813    0.62033 
0.815    0.61241 
0.817    0.60321 
0.819    0.59619 
0.821    0.58886 
0.823    0.58248 
0.825    0.57545 
0.827    0.56845 
0.829    0.55905 
0.831    0.55218 
0.833    0.54572 
0.835    0.53958 
0.837    0.53000 
0.839    0.52332 
0.841    0.51535 
0.843    0.50898 
0.845    0.50078 
0.847    0.49393 
0.849    0.48644 
0.851    0.47857 
0.853    0.46947 
0.855    0.46434 
0.857    0.45792 
0.859    0.44991 
0.861    0.43950 
0.863    0.43421 
0.865    0.42597 
0.867    0.41802 
0.869    0.41297 
0.871    0.40313 
0.873    0.39898 
0.875    0.39030 
0.877    0.38350 
0.879    0.37562 
0.881    0.36895 
0.883    0.36158 
0.885    0.35536 
0.887    0.34755 
0.889    0.34232 
0.891    0.33445 
0.893    0.32520 
0.895    0.31909 
0.897    0.31228 
0.899    0.30516 
0.901    0.29890 
0.903    0.29229 
0.905    0.28455 
0.907    0.27861 
0.909    0.27309 
0.911    0.26546 
0.913    0.25777 
0.915    0.25224 
0.917    0.24690 
0.919    0.23962 
0.921    0.23343 
0.923    0.22709 
0.925    0.22065 
0.927    0.21507 
0.929    0.20854 
0.931    0.20293 
0.933    0.19741 
0.935    0.19183 
0.937    0.18611 
0.939    0.17962 
0.941    0.17434 
0.943    0.16882 
0.945    0.16357 
0.947    0.15804 
0.949    0.15343 
0.951    0.14784 
0.953    0.14318 
0.955    0.13768 
0.957    0.13290 
0.959    0.12822 
0.961    0.12351 
0.963    0.11884 
0.965    0.11431 
0.967    0.11012 
0.969    0.10563 
0.971    0.10100 
0.973    0.09709 
0.975    0.09323 
0.977    0.08927 
0.979    0.08513 
0.981    0.08117 
0.983    0.07741 
0.985    0.07391 
0.987    0.07038 
0.989    0.06699 
0.991    0.06375 
0.993    0.06039 
0.995    0.05703 
0.997    0.05403 
0.999    0.05141 
1.003    0.04629
1.008    0.03983
1.013    0.03367
1.018    0.02842
1.023    0.02345
1.028    0.01940
1.033    0.01569
1.038    0.01255
1.043    0.00988
1.048    0.00755
1.053    0.00569
1.058    0.00414
1.063    0.00299
1.068    0.00214
1.073    0.00156
1.078    0.00112
1.083    0.00078
1.088    0.00050
1.093    0.00030
1.098    0.00018
1.103    0.00000         