# wavelength [um], throughput
0.321   0.00000
0.323   0.00000
0.325   0.00000
0.327   0.00001
0.329   0.00001
0.331   0.00003
0.333   0.00004
0.335   0.00008
0.337   0.00009
0.339   0.00011
0.341   0.00020
0.343   0.00016
0.345   0.00019
0.347   0.00014
0.349   0.00005
0.351   0.00004
0.353   0.00004
0.355   0.00004
0.357   0.00004
0.359   0.00004
0.361   0.00003
0.363   0.00003
0.364   0.00003
0.365   0.00002
0.367   0.00004
0.369   0.00003
0.371   0.00003
0.373   0.00003
0.375   0.00002
0.377   0.00002
0.379   0.00002
0.381   0.00002
0.383   0.00003
0.385   0.00002
0.387   0.00004
0.389   0.00003
0.391   0.00005
0.393   0.00005
0.395   0.00007
0.397   0.00007
0.399   0.00009
0.401   0.00014
0.403   0.00011
0.405   0.00008
0.407   0.00009
0.409   0.00008
0.411   0.00010
0.413   0.00012
0.415   0.00017
0.417   0.00012
0.419   0.00007
0.421   0.00010
0.423   0.00007
0.425   0.00007
0.427   0.00005
0.429   0.00007
0.431   0.00006
0.433   0.00009
0.435   0.00008
0.437   0.00010
0.439   0.00008
0.441   0.00007
0.443   0.00007
0.445   0.00005
0.447   0.00005
0.449   0.00006
0.451   0.00004
0.453   0.00005
0.455   0.00007
0.457   0.00004
0.459   0.00006
0.461   0.00005
0.463   0.00006
0.465   0.00005
0.467   0.00005
0.469   0.00005
0.471   0.00005
0.473   0.00005
0.475   0.00005
0.477   0.00006
0.479   0.00007
0.481   0.00006
0.483   0.00006
0.485   0.00005
0.487   0.00006
0.489   0.00006
0.491   0.00006
0.493   0.00007
0.495   0.00006
0.497   0.00008
0.499   0.00006
0.501   0.00006
0.503   0.00006
0.505   0.00007
0.507   0.00005
0.509   0.00008
0.511   0.00007
0.513   0.00005
0.515   0.00005
0.517   0.00006
0.519   0.00007
0.521   0.00007
0.523   0.00006
0.525   0.00006
0.527   0.00008
0.529   0.00007
0.531   0.00007
0.533   0.00007
0.535   0.00008
0.537   0.00009
0.539   0.00009
0.541   0.00008
0.543   0.00011
0.545   0.00012
0.547   0.00010
0.549   0.00009
0.551   0.00007
0.553   0.00009
0.555   0.00010
0.557   0.00010
0.559   0.00010
0.561   0.00009
0.563   0.00008
0.565   0.00009
0.567   0.00010
0.569   0.00010
0.571   0.00008
0.573   0.00009
0.575   0.00008
0.577   0.00013
0.579   0.00013
0.581   0.00013
0.583   0.00012
0.585   0.00018
0.587   0.00017
0.589   0.00016
0.591   0.00018
0.593   0.00013
0.595   0.00014
0.597   0.00013
0.599   0.00012
0.601   0.00015
0.603   0.00014
0.605   0.00018
0.607   0.00021
0.609   0.00022
0.611   0.00029
0.613   0.00038
0.615   0.00049
0.617   0.00066
0.619   0.00093
0.621   0.00136
0.623   0.00209
0.625   0.00331
0.627   0.00552
0.629   0.00951
0.631   0.01735
0.633   0.03311
0.635   0.06625
0.637   0.13640
0.639   0.27682
0.641   0.49672
0.643   0.74096
0.645   0.90004
0.647   0.96560
0.649   0.97098
0.651   0.97472
0.653   0.97426
0.655   0.97503
0.657   0.97445
0.659   0.97397
0.661   0.97083
0.663   0.96520
0.665   0.96650
0.667   0.96640
0.669   0.96499
0.671   0.96429
0.673   0.96637
0.675   0.96313
0.677   0.95933
0.679   0.95685
0.681   0.95678
0.683   0.95226
0.685   0.95335
0.687   0.94982
0.689   0.95333
0.691   0.95388
0.693   0.95641
0.695   0.96071
0.697   0.96768
0.699   0.97172
0.701   0.97758
0.703   0.97680
0.705   0.97870
0.707   0.98426
0.709   0.98549
0.711   0.99059
0.713   0.99145
0.715   0.99335
0.717   0.99130
0.719   0.98991
0.721   0.99444
0.723   0.99370
0.725   0.99339
0.727   0.99756
0.729   0.99505
0.731   0.99742
0.733   1.00000
0.735   0.99768
0.737   0.99814
0.739   0.99590
0.741   0.99770
0.743   0.99130
0.745   0.99227
0.747   0.99166
0.749   0.99139
0.751   0.98735
0.753   0.99037
0.755   0.98880
0.757   0.98829
0.759   0.98916
0.761   0.98530
0.763   0.98826
0.765   0.98724
0.767   0.98205
0.769   0.98219
0.771   0.98096
0.773   0.97961
0.775   0.97440
0.777   0.96751
0.779   0.97303
0.781   0.96661
0.783   0.96771
0.785   0.95848
0.787   0.95579
0.789   0.95237
0.791   0.94963
0.793   0.94752
0.795   0.94259
0.797   0.94067
0.799   0.93525
0.801   0.93181
0.803   0.93203
0.805   0.92616
0.807   0.92363
0.809   0.92186
0.811   0.92170
0.813   0.92071
0.815   0.91611
0.817   0.90975
0.819   0.90568
0.821   0.90060
0.823   0.89698
0.825   0.89185
0.827   0.88588
0.829   0.87646
0.831   0.87046
0.833   0.86450
0.835   0.86062
0.837   0.85111
0.839   0.84660
0.841   0.83913
0.843   0.83483
0.845   0.82938
0.847   0.82671
0.849   0.80471
0.851   0.80075
0.853   0.79310
0.855   0.79199
0.857   0.78833
0.859   0.78196
0.861   0.77064
0.863   0.76745
0.865   0.75888
0.867   0.75039
0.869   0.74592
0.871   0.73313
0.873   0.72997
0.875   0.71750
0.877   0.70892
0.879   0.69860
0.881   0.68912
0.883   0.67964
0.885   0.67232
0.887   0.66115
0.889   0.65558
0.891   0.64534
0.893   0.63182
0.895   0.62367
0.897   0.61490
0.899   0.60498
0.901   0.59567
0.903   0.58626
0.905   0.57487
0.907   0.56547
0.909   0.55724
0.911   0.54515
0.913   0.53202
0.915   0.52247
0.917   0.51428
0.919   0.50220
0.921   0.49098
0.923   0.47970
0.925   0.46926
0.927   0.45957
0.929   0.44696
0.931   0.43734
0.933   0.42828
0.935   0.41763
0.937   0.40671
0.939   0.39492
0.941   0.38514
0.943   0.37376
0.945   0.36390
0.947   0.35408
0.949   0.34523
0.951   0.33368
0.953   0.32519
0.955   0.31495
0.957   0.30509
0.959   0.29507
0.961   0.28572
0.963   0.27652
0.965   0.26673
0.967   0.25759
0.969   0.24839
0.971   0.23876
0.973   0.22994
0.975   0.22090
0.977   0.21246
0.979   0.20365
0.981   0.19455
0.983   0.18565
0.985   0.17801
0.987   0.17040
0.989   0.16245
0.991   0.15463
0.993   0.14702
0.995   0.13957
0.997   0.13248
0.999   0.12606
1.003   0.11424
1.008   0.09862
1.013   0.08404
1.018   0.07095
1.023   0.05889
1.028   0.04886
1.033   0.03971
1.038   0.03187
1.043   0.02505
1.048   0.01923
1.053   0.01445
1.058   0.01059
1.063   0.00762
1.068   0.00550
1.073   0.00400
1.078   0.00288
1.083   0.00199
1.088   0.00128
1.093   0.00077
1.098   0.00044
1.103   0.00000 
               